PART	VALUE	Freq(Hz)	GAIN (V/V)	Phase (degree)	GROUP DELAY (s)
R1 (KOhm)	140.00	0.0010	0.0000	179.9973	0.0074
C1 (nF)	220.00	0.0011	0.0000	179.9971	0.0074
FcHPF1 (Hz)	51.67	0.0012	0.0000	179.9968	0.0074
R2 (KOhm)	140.00	0.0013	0.0000	179.9965	0.0074
C2 (nF)	220.00	0.0014	0.0000	179.9963	0.0074
FcHPF2 (Hz)	51.67	0.0015	0.0000	179.9960	0.0074
R3 (KOhm)	0.00	0.0016	0.0000	179.9957	0.0074
C3 (nF)	0.00	0.0017	0.0000	179.9954	0.0074
FcHPF3 (Hz)	0.00	0.0018	0.0000	179.9952	0.0074
R4 (KOhm)	44.00	0.0019	0.0000	179.9949	0.0074
C4 (nF)	22.00	0.0020	0.0000	179.9946	0.0074
R5 (KOhm)	44.00	0.0021	0.0000	179.9944	0.0074
C5(nF)	1.50	0.0022	0.0000	179.9941	0.0074
LPFx2 Fc (Hz)	629.67	0.0023	0.0000	179.9938	0.0074
Q	0.20	0.0024	0.0000	179.9936	0.0074
R6 (KOhm)	1000.00	0.0025	0.0000	179.9933	0.0074
R7 (KOhm)	100.00	0.0026	0.0000	179.9930	0.0074
K (gain)	11.00	0.0027	0.0000	179.9928	0.0074
R8 (KOhm)	0.00	0.0028	0.0000	179.9925	0.0074
C8(nF)	0.00	0.0029	0.0000	179.9922	0.0074
LPFout Fc (Hz)	0.00	0.0030	0.0000	179.9920	0.0074
		0.0031	0.0000	179.9917	0.0074
		0.0032	0.0000	179.9914	0.0074
		0.0033	0.0000	179.9912	0.0074
		0.0034	0.0000	179.9909	0.0074
		0.0035	0.0000	179.9906	0.0074
		0.0036	0.0000	179.9904	0.0074
		0.0037	0.0000	179.9901	0.0074
		0.0038	0.0000	179.9898	0.0074
		0.0039	0.0000	179.9896	0.0074
		0.0040	0.0000	179.9893	0.0074
		0.0041	0.0000	179.9890	0.0074
		0.0042	0.0000	179.9888	0.0074
		0.0043	0.0000	179.9885	0.0074
		0.0044	0.0000	179.9882	0.0074
		0.0045	0.0000	179.9880	0.0074
		0.0046	0.0000	179.9877	0.0074
		0.0047	0.0000	179.9874	0.0074
		0.0048	0.0000	179.9872	0.0074
		0.0049	0.0000	179.9869	0.0074
		0.0050	0.0000	179.9866	0.0074
		0.0051	0.0000	179.9863	0.0074
		0.0052	0.0000	179.9861	0.0074
		0.0053	0.0000	179.9858	0.0074
		0.0054	0.0000	179.9855	0.0074
		0.0055	0.0000	179.9853	0.0074
		0.0056	0.0000	179.9850	0.0074
		0.0057	0.0000	179.9847	0.0074
		0.0058	0.0000	179.9845	0.0074
		0.0059	0.0000	179.9842	0.0074
		0.0060	0.0000	179.9839	0.0074
		0.0061	0.0000	179.9837	0.0074
		0.0062	0.0000	179.9834	0.0074
		0.0063	0.0000	179.9831	0.0074
		0.0064	0.0000	179.9829	0.0074
		0.0065	0.0000	179.9826	0.0074
		0.0066	0.0000	179.9823	0.0074
		0.0067	0.0000	179.9821	0.0074
		0.0068	0.0000	179.9818	0.0074
		0.0069	0.0000	179.9815	0.0074
		0.0070	0.0000	179.9813	0.0074
		0.0071	0.0000	179.9810	0.0074
		0.0072	0.0000	179.9807	0.0074
		0.0073	0.0000	179.9805	0.0074
		0.0074	0.0000	179.9802	0.0074
		0.0075	0.0000	179.9799	0.0074
		0.0076	0.0000	179.9797	0.0074
		0.0077	0.0000	179.9794	0.0074
		0.0078	0.0000	179.9791	0.0074
		0.0079	0.0000	179.9789	0.0074
		0.0080	0.0000	179.9786	0.0074
		0.0081	0.0000	179.9783	0.0074
		0.0082	0.0000	179.9780	0.0074
		0.0083	0.0000	179.9778	0.0074
		0.0084	0.0000	179.9775	0.0074
		0.0085	0.0000	179.9772	0.0074
		0.0086	0.0000	179.9770	0.0074
		0.0087	0.0000	179.9767	0.0074
		0.0088	0.0000	179.9764	0.0074
		0.0089	0.0000	179.9762	0.0074
		0.0090	0.0000	179.9759	0.0074
		0.0091	0.0000	179.9756	0.0074
		0.0092	0.0000	179.9754	0.0074
		0.0093	0.0000	179.9751	0.0074
		0.0094	0.0000	179.9748	0.0074
		0.0095	0.0000	179.9746	0.0074
		0.0096	0.0000	179.9743	0.0074
		0.0097	0.0000	179.9740	0.0074
		0.0098	0.0000	179.9738	0.0074
		0.0099	0.0000	179.9735	0.0074
		0.0100	0.0000	179.9732	0.0074
		0.0110	0.0000	179.9706	0.0074
		0.0120	0.0001	179.9679	0.0074
		0.0130	0.0001	179.9652	0.0074
		0.0140	0.0001	179.9625	0.0074
		0.0150	0.0001	179.9598	0.0074
		0.0160	0.0001	179.9572	0.0074
		0.0170	0.0001	179.9545	0.0074
		0.0180	0.0001	179.9518	0.0074
		0.0190	0.0001	179.9491	0.0074
		0.0200	0.0002	179.9465	0.0074
		0.0210	0.0002	179.9438	0.0074
		0.0220	0.0002	179.9411	0.0074
		0.0230	0.0002	179.9384	0.0074
		0.0240	0.0002	179.9358	0.0074
		0.0250	0.0003	179.9331	0.0074
		0.0260	0.0003	179.9304	0.0074
		0.0270	0.0003	179.9277	0.0074
		0.0280	0.0003	179.9250	0.0074
		0.0290	0.0003	179.9224	0.0074
		0.0300	0.0004	179.9197	0.0074
		0.0310	0.0004	179.9170	0.0074
		0.0320	0.0004	179.9143	0.0074
		0.0330	0.0004	179.9117	0.0074
		0.0340	0.0005	179.9090	0.0074
		0.0350	0.0005	179.9063	0.0074
		0.0360	0.0005	179.9036	0.0074
		0.0370	0.0006	179.9010	0.0074
		0.0380	0.0006	179.8983	0.0074
		0.0390	0.0006	179.8956	0.0074
		0.0400	0.0007	179.8929	0.0074
		0.0410	0.0007	179.8902	0.0074
		0.0420	0.0007	179.8876	0.0074
		0.0430	0.0008	179.8849	0.0074
		0.0440	0.0008	179.8822	0.0074
		0.0450	0.0008	179.8795	0.0074
		0.0460	0.0009	179.8769	0.0074
		0.0470	0.0009	179.8742	0.0074
		0.0480	0.0009	179.8715	0.0074
		0.0490	0.0010	179.8688	0.0074
		0.0500	0.0010	179.8662	0.0074
		0.0510	0.0011	179.8635	0.0074
		0.0520	0.0011	179.8608	0.0074
		0.0530	0.0012	179.8581	0.0074
		0.0540	0.0012	179.8554	0.0074
		0.0550	0.0012	179.8528	0.0074
		0.0560	0.0013	179.8501	0.0074
		0.0570	0.0013	179.8474	0.0074
		0.0580	0.0014	179.8447	0.0074
		0.0590	0.0014	179.8421	0.0074
		0.0600	0.0015	179.8394	0.0074
		0.0610	0.0015	179.8367	0.0074
		0.0620	0.0016	179.8340	0.0074
		0.0630	0.0016	179.8314	0.0074
		0.0640	0.0017	179.8287	0.0074
		0.0650	0.0017	179.8260	0.0074
		0.0660	0.0018	179.8233	0.0074
		0.0670	0.0018	179.8206	0.0074
		0.0680	0.0019	179.8180	0.0074
		0.0690	0.0020	179.8153	0.0074
		0.0700	0.0020	179.8126	0.0074
		0.0710	0.0021	179.8099	0.0074
		0.0720	0.0021	179.8073	0.0074
		0.0730	0.0022	179.8046	0.0074
		0.0740	0.0023	179.8019	0.0074
		0.0750	0.0023	179.7992	0.0074
		0.0760	0.0024	179.7966	0.0074
		0.0770	0.0024	179.7939	0.0074
		0.0780	0.0025	179.7912	0.0074
		0.0790	0.0026	179.7885	0.0074
		0.0800	0.0026	179.7858	0.0074
		0.0810	0.0027	179.7832	0.0074
		0.0820	0.0028	179.7805	0.0074
		0.0830	0.0028	179.7778	0.0074
		0.0840	0.0029	179.7751	0.0074
		0.0850	0.0030	179.7725	0.0074
		0.0860	0.0030	179.7698	0.0074
		0.0870	0.0031	179.7671	0.0074
		0.0880	0.0032	179.7644	0.0074
		0.0890	0.0033	179.7618	0.0074
		0.0900	0.0033	179.7591	0.0074
		0.0910	0.0034	179.7564	0.0074
		0.0920	0.0035	179.7537	0.0074
		0.0930	0.0036	179.7510	0.0074
		0.0940	0.0036	179.7484	0.0074
		0.0950	0.0037	179.7457	0.0074
		0.0960	0.0038	179.7430	0.0074
		0.0970	0.0039	179.7403	0.0074
		0.0980	0.0040	179.7377	0.0074
		0.0990	0.0040	179.7350	0.0074
		0.1000	0.0041	179.7323	0.0074
		0.1100	0.0050	179.7055	0.0074
		0.1200	0.0059	179.6788	0.0074
		0.1300	0.0070	179.6520	0.0074
		0.1400	0.0081	179.6252	0.0074
		0.1500	0.0093	179.5985	0.0074
		0.1600	0.0105	179.5717	0.0074
		0.1700	0.0119	179.5449	0.0074
		0.1800	0.0133	179.5181	0.0074
		0.1900	0.0149	179.4914	0.0074
		0.2000	0.0165	179.4646	0.0074
		0.2100	0.0182	179.4378	0.0074
		0.2200	0.0199	179.4111	0.0074
		0.2300	0.0218	179.3843	0.0074
		0.2400	0.0237	179.3575	0.0074
		0.2500	0.0257	179.3308	0.0074
		0.2600	0.0278	179.3040	0.0074
		0.2700	0.0300	179.2772	0.0074
		0.2800	0.0323	179.2505	0.0074
		0.2900	0.0346	179.2237	0.0074
		0.3000	0.0371	179.1969	0.0074
		0.3100	0.0396	179.1702	0.0074
		0.3200	0.0422	179.1434	0.0074
		0.3300	0.0449	179.1166	0.0074
		0.3400	0.0476	179.0898	0.0074
		0.3500	0.0505	179.0631	0.0074
		0.3600	0.0534	179.0363	0.0074
		0.3700	0.0564	179.0095	0.0074
		0.3800	0.0595	178.9828	0.0074
		0.3900	0.0627	178.9560	0.0074
		0.4000	0.0659	178.9292	0.0074
		0.4100	0.0692	178.9025	0.0074
		0.4200	0.0727	178.8757	0.0074
		0.4300	0.0762	178.8489	0.0074
		0.4400	0.0797	178.8222	0.0074
		0.4500	0.0834	178.7954	0.0074
		0.4600	0.0872	178.7686	0.0074
		0.4700	0.0910	178.7419	0.0074
		0.4800	0.0949	178.7151	0.0074
		0.4900	0.0989	178.6883	0.0074
		0.5000	0.1030	178.6616	0.0074
		0.5100	0.1071	178.6348	0.0074
		0.5200	0.1114	178.6080	0.0074
		0.5300	0.1157	178.5813	0.0074
		0.5400	0.1201	178.5545	0.0074
		0.5500	0.1246	178.5277	0.0074
		0.5600	0.1292	178.5010	0.0074
		0.5700	0.1338	178.4742	0.0074
		0.5800	0.1386	178.4474	0.0074
		0.5900	0.1434	178.4207	0.0074
		0.6000	0.1483	178.3939	0.0074
		0.6100	0.1533	178.3671	0.0074
		0.6200	0.1583	178.3404	0.0074
		0.6300	0.1635	178.3136	0.0074
		0.6400	0.1687	178.2868	0.0074
		0.6500	0.1740	178.2601	0.0074
		0.6600	0.1794	178.2333	0.0074
		0.6700	0.1849	178.2065	0.0074
		0.6800	0.1905	178.1798	0.0074
		0.6900	0.1961	178.1530	0.0074
		0.7000	0.2018	178.1262	0.0074
		0.7100	0.2076	178.0995	0.0074
		0.7200	0.2135	178.0727	0.0074
		0.7300	0.2195	178.0459	0.0074
		0.7400	0.2255	178.0192	0.0074
		0.7500	0.2317	177.9924	0.0074
		0.7600	0.2379	177.9656	0.0074
		0.7700	0.2442	177.9389	0.0074
		0.7800	0.2506	177.9121	0.0074
		0.7900	0.2570	177.8853	0.0074
		0.8000	0.2636	177.8586	0.0074
		0.8100	0.2702	177.8318	0.0074
		0.8200	0.2769	177.8051	0.0074
		0.8300	0.2837	177.7783	0.0074
		0.8400	0.2906	177.7515	0.0074
		0.8500	0.2976	177.7248	0.0074
		0.8600	0.3046	177.6980	0.0074
		0.8700	0.3117	177.6712	0.0074
		0.8800	0.3189	177.6445	0.0074
		0.8900	0.3262	177.6177	0.0074
		0.9000	0.3336	177.5909	0.0074
		0.9100	0.3410	177.5642	0.0074
		0.9200	0.3486	177.5374	0.0074
		0.9300	0.3562	177.5107	0.0074
		0.9400	0.3639	177.4839	0.0074
		0.9500	0.3717	177.4571	0.0074
		0.9600	0.3795	177.4304	0.0074
		0.9700	0.3875	177.4036	0.0074
		0.9800	0.3955	177.3768	0.0074
		0.9900	0.4036	177.3501	0.0074
		1.0000	0.4118	177.3233	0.0074
		1.1000	0.4982	177.0557	0.0074
		1.2000	0.5929	176.7881	0.0074
		1.3000	0.6957	176.5206	0.0074
		1.4000	0.8068	176.2530	0.0074
		1.5000	0.9261	175.9855	0.0074
		1.6000	1.0535	175.7180	0.0074
		1.7000	1.1892	175.4506	0.0074
		1.8000	1.3330	175.1831	0.0074
		1.9000	1.4850	174.9157	0.0074
		2.0000	1.6452	174.6484	0.0074
		2.1000	1.8135	174.3810	0.0074
		2.2000	1.9900	174.1137	0.0074
		2.3000	2.1746	173.8465	0.0074
		2.4000	2.3674	173.5792	0.0074
		2.5000	2.5683	173.3121	0.0074
		2.6000	2.7773	173.0449	0.0074
		2.7000	2.9944	172.7778	0.0074
		2.8000	3.2196	172.5108	0.0074
		2.9000	3.4528	172.2438	0.0074
		3.0000	3.6942	171.9768	0.0074
		3.1000	3.9436	171.7099	0.0074
		3.2000	4.2011	171.4431	0.0074
		3.3000	4.4666	171.1763	0.0074
		3.4000	4.7401	170.9095	0.0074
		3.5000	5.0216	170.6428	0.0074
		3.6000	5.3112	170.3762	0.0074
		3.7000	5.6087	170.1097	0.0074
		3.8000	5.9142	169.8432	0.0074
		3.9000	6.2276	169.5767	0.0074
		4.0000	6.5490	169.3104	0.0074
		4.1000	6.8783	169.0441	0.0074
		4.2000	7.2155	168.7778	0.0074
		4.3000	7.5606	168.5117	0.0074
		4.4000	7.9136	168.2456	0.0074
		4.5000	8.2744	167.9796	0.0074
		4.6000	8.6431	167.7136	0.0074
		4.7000	9.0196	167.4478	0.0074
		4.8000	9.4039	167.1820	0.0074
		4.9000	9.7960	166.9163	0.0074
		5.0000	10.1959	166.6507	0.0074
		5.1000	10.6035	166.3852	0.0074
		5.2000	11.0189	166.1197	0.0074
		5.3000	11.4419	165.8544	0.0074
		5.4000	11.8727	165.5891	0.0074
		5.5000	12.3111	165.3239	0.0074
		5.6000	12.7572	165.0588	0.0074
		5.7000	13.2109	164.7938	0.0074
		5.8000	13.6723	164.5289	0.0074
		5.9000	14.1412	164.2641	0.0074
		6.0000	14.6177	163.9994	0.0074
		6.1000	15.1017	163.7348	0.0073
		6.2000	15.5932	163.4703	0.0073
		6.3000	16.0923	163.2059	0.0073
		6.4000	16.5988	162.9416	0.0073
		6.5000	17.1127	162.6775	0.0073
		6.6000	17.6341	162.4134	0.0073
		6.7000	18.1629	162.1494	0.0073
		6.8000	18.6991	161.8856	0.0073
		6.9000	19.2427	161.6218	0.0073
		7.0000	19.7935	161.3582	0.0073
		7.1000	20.3517	161.0947	0.0073
		7.2000	20.9171	160.8313	0.0073
		7.3000	21.4898	160.5680	0.0073
		7.4000	22.0698	160.3048	0.0073
		7.5000	22.6569	160.0418	0.0073
		7.6000	23.2512	159.7789	0.0073
		7.7000	23.8526	159.5161	0.0073
		7.8000	24.4612	159.2534	0.0073
		7.9000	25.0768	158.9909	0.0073
		8.0000	25.6996	158.7285	0.0073
		8.1000	26.3293	158.4662	0.0073
		8.2000	26.9661	158.2041	0.0073
		8.3000	27.6098	157.9421	0.0073
		8.4000	28.2605	157.6802	0.0073
		8.5000	28.9181	157.4185	0.0073
		8.6000	29.5826	157.1569	0.0073
		8.7000	30.2539	156.8954	0.0073
		8.8000	30.9321	156.6341	0.0073
		8.9000	31.6171	156.3729	0.0073
		9.0000	32.3088	156.1119	0.0072
		9.1000	33.0073	155.8510	0.0072
		9.2000	33.7125	155.5903	0.0072
		9.3000	34.4244	155.3297	0.0072
		9.4000	35.1429	155.0692	0.0072
		9.5000	35.8680	154.8090	0.0072
		9.6000	36.5997	154.5488	0.0072
		9.7000	37.3380	154.2888	0.0072
		9.8000	38.0827	154.0290	0.0072
		9.9000	38.8340	153.7693	0.0072
		10.0000	39.5917	153.5098	0.0072
		11.0000	47.5161	150.9237	0.0071
		12.0000	56.0481	148.3549	0.0071
		13.0000	65.1516	145.8046	0.0070
		14.0000	74.7894	143.2741	0.0070
		15.0000	84.9232	140.7644	0.0069
		16.0000	95.5136	138.2767	0.0068
		17.0000	106.5209	135.8120	0.0068
		18.0000	117.9053	133.3711	0.0067
		19.0000	129.6269	130.9548	0.0066
		20.0000	141.6463	128.5640	0.0066
		21.0000	153.9245	126.1993	0.0065
		22.0000	166.4236	123.8614	0.0064
		23.0000	179.1063	121.5507	0.0063
		24.0000	191.9369	119.2677	0.0063
		25.0000	204.8805	117.0129	0.0062
		26.0000	217.9041	114.7865	0.0061
		27.0000	230.9760	112.5889	0.0060
		28.0000	244.0660	110.4203	0.0059
		29.0000	257.1458	108.2807	0.0059
		30.0000	270.1887	106.1704	0.0058
		31.0000	283.1696	104.0894	0.0057
		32.0000	296.0652	102.0377	0.0056
		33.0000	308.8540	100.0152	0.0055
		34.0000	321.5160	98.0219	0.0055
		35.0000	334.0331	96.0576	0.0054
		36.0000	346.3885	94.1222	0.0053
		37.0000	358.5673	92.2156	0.0052
		38.0000	370.5557	90.3375	0.0051
		39.0000	382.3418	88.4876	0.0051
		40.0000	393.9147	86.6657	0.0050
		41.0000	405.2650	84.8716	0.0049
		42.0000	416.3846	83.1048	0.0048
		43.0000	427.2663	81.3652	0.0048
		44.0000	437.9043	79.6523	0.0047
		45.0000	448.2936	77.9658	0.0046
		46.0000	458.4303	76.3053	0.0045
		47.0000	468.3113	74.6706	0.0045
		48.0000	477.9345	73.0611	0.0044
		49.0000	487.2984	71.4765	0.0043
		50.0000	496.4021	69.9165	0.0043
		51.0000	505.2457	68.3806	0.0042
		52.0000	513.8295	66.8684	0.0041
		53.0000	522.1546	65.3795	0.0041
		54.0000	530.2224	63.9136	0.0040
		55.0000	538.0349	62.4703	0.0039
		56.0000	545.5944	61.0490	0.0039
		57.0000	552.9036	59.6496	0.0038
		58.0000	559.9655	58.2714	0.0038
		59.0000	566.7832	56.9143	0.0037
		60.0000	573.3605	55.5777	0.0037
		61.0000	579.7008	54.2614	0.0036
		62.0000	585.8082	52.9648	0.0035
		63.0000	591.6867	51.6877	0.0035
		64.0000	597.3405	50.4297	0.0034
		65.0000	602.7738	49.1904	0.0034
		66.0000	607.9911	47.9694	0.0033
		67.0000	612.9967	46.7665	0.0033
		68.0000	617.7953	45.5812	0.0032
		69.0000	622.3913	44.4133	0.0032
		70.0000	626.7893	43.2623	0.0032
		71.0000	630.9939	42.1280	0.0031
		72.0000	635.0095	41.0100	0.0031
		73.0000	638.8409	39.9081	0.0030
		74.0000	642.4924	38.8219	0.0030
		75.0000	645.9687	37.7510	0.0029
		76.0000	649.2741	36.6953	0.0029
		77.0000	652.4131	35.6544	0.0029
		78.0000	655.3901	34.6280	0.0028
		79.0000	658.2093	33.6159	0.0028
		80.0000	660.8750	32.6178	0.0027
		81.0000	663.3914	31.6333	0.0027
		82.0000	665.7626	30.6624	0.0027
		83.0000	667.9927	29.7046	0.0026
		84.0000	670.0856	28.7597	0.0026
		85.0000	672.0453	27.8276	0.0026
		86.0000	673.8756	26.9079	0.0025
		87.0000	675.5802	26.0004	0.0025
		88.0000	677.1628	25.1049	0.0025
		89.0000	678.6270	24.2212	0.0024
		90.0000	679.9763	23.3490	0.0024
		91.0000	681.2142	22.4882	0.0024
		92.0000	682.3440	21.6385	0.0023
		93.0000	683.3691	20.7997	0.0023
		94.0000	684.2925	19.9716	0.0023
		95.0000	685.1175	19.1540	0.0022
		96.0000	685.8471	18.3468	0.0022
		97.0000	686.4843	17.5497	0.0022
		98.0000	687.0320	16.7626	0.0022
		99.0000	687.4930	15.9853	0.0021
		100.0000	687.8701	15.2175	0.0020
		110.0000	687.5820	8.0328	0.0018
		120.0000	681.4432	1.6424	0.0016
		130.0000	671.2114	-4.0760	0.0014
		140.0000	658.1955	-9.2213	0.0013
		150.0000	643.3617	-13.8747	0.0012
		160.0000	627.4181	-18.1027	0.0011
		170.0000	610.8803	-21.9609	0.0010
		180.0000	594.1204	-25.4958	0.0009
		190.0000	577.4046	-28.7464	0.0008
		200.0000	560.9202	-31.7461	0.0008
		210.0000	544.7966	-34.5233	0.0007
		220.0000	529.1200	-37.1024	0.0007
		230.0000	513.9457	-39.5044	0.0006
		240.0000	499.3054	-41.7476	0.0006
		250.0000	485.2146	-43.8479	0.0005
		260.0000	471.6764	-45.8191	0.0005
		270.0000	458.6853	-47.6735	0.0005
		280.0000	446.2300	-49.4218	0.0005
		290.0000	434.2950	-51.0736	0.0004
		300.0000	422.8620	-52.6371	0.0004
		310.0000	411.9112	-54.1200	0.0004
		320.0000	401.4221	-55.5290	0.0004
		330.0000	391.3736	-56.8699	0.0004
		340.0000	381.7448	-58.1482	0.0003
		350.0000	372.5154	-59.3686	0.0003
		360.0000	363.6654	-60.5356	0.0003
		370.0000	355.1756	-61.6531	0.0003
		380.0000	347.0277	-62.7245	0.0003
		390.0000	339.2041	-63.7533	0.0003
		400.0000	331.6881	-64.7422	0.0003
		410.0000	324.4638	-65.6940	0.0003
		420.0000	317.5164	-66.6112	0.0002
		430.0000	310.8315	-67.4959	0.0002
		440.0000	304.3960	-68.3502	0.0002
		450.0000	298.1971	-69.1760	0.0002
		460.0000	292.2229	-69.9750	0.0002
		470.0000	286.4623	-70.7489	0.0002
		480.0000	280.9047	-71.4990	0.0002
		490.0000	275.5402	-72.2268	0.0002
		500.0000	270.3594	-72.9335	0.0000
